# Header: Project1::TiAlSn_indentation_mapping cleaned-Dil::All data::Grain Size 2/19/2014      
#            
# Column 01:00 Integer identifying grain       
# Column 2-4: Average orientation (phi1, PHI, phi2) in degrees   
# Column 5-6: Average Position (x, y) in microns    
# Column 07:00 Average Image Quality (IQ)      
# Column 08:00 Average Confidence Index (CI)      
# Column 09:00 Average Fit (degrees)       
# Column 10:00 An integer identifying the phase     
# 1 - Titanium (Alpha)        
# 2 - Titanium (BCC)        
# Column 11:00 Edge grain -1 or interior grain 0   
# Column 12:00 Diameter of grain in microns     
 1 252.802 83.370 98.58 13.158 5.997 4513.7 0.676 0.95 2 1 20.57
 2 251.111 86.347 131.53 34.991 15.723 4195.9 0.609 1.02 1 1 31.22
 3 206.963 34.664 172.43 82.358 11.793 5177.7 0.696 0.84 1 1 43.55
 4 87.356 85.711 257.36 119.802 6.679 3849.5 0.500 1.28 1 1 18.08
 5 165.474 13.972 167.70 138.863 25.033 4410.9 0.564 1.08 1 1 38.84
 6 315.372 48.563 18.09 161.371 20.932 5574.5 0.647 0.85 1 1 35.81
 7 314.148 86.858 26.24 215.017 49.221 4097.3 0.500 1.20 1 1 83.97
 8 252.119 80.605 127.54 258.996 15.117 3539.8 0.415 1.43 1 1 49.32
 9 147.580 31.835 200.63 301.639 4.797 3689.7 0.248 1.54 1 1 16.19
 10 262.044 14.074 97.50 329.162 14.437 4285.8 0.644 1.13 1 1 39.84
 11 231.391 51.161 113.93 354.683 55.763 5674.5 0.588 0.85 1 1 72.66
 12 71.606 73.594 292.24 389.311 14.347 4650.5 0.695 0.96 1 1 39.23
 13 141.599 64.524 201.28 417.533 29.063 6127.7 0.785 0.89 1 1 43.91
 14 331.716 8.465 19.49 445.323 9.172 4344.4 0.655 1.03 1 1 24.67
 15 213.311 81.570 158.10 468.858 2.925 4167.4 0.409 1.23 1 1 11.36
 16 309.692 87.346 45.96 501.956 36.087 3973.9 0.571 1.15 1 1 65.37
 17 120.653 25.024 248.55 551.134 49.212 5010.9 0.697 0.90 1 1 65.10
 18 246.270 88.490 81.94 577.800 17.739 4538.3 0.654 1.05 1 1 49.95
 19 354.224 11.066 8.65 612.188 6.792 4231.1 0.575 1.23 1 1 18.87
 20 243.223 83.974 90.98 644.464 34.358 4722.2 0.634 1.02 1 1 76.53
 21 96.447 85.587 268.25 688.475 7.650 4715.6 0.697 1.01 1 1 23.44
 22 251.538 73.699 107.40 717.136 7.371 4980.0 0.543 1.06 1 1 25.07
 23 334.478 57.830 34.14 746.592 5.901 5031.6 0.602 1.02 1 1 17.41
 24 14.022 42.581 319.17 760.974 3.171 5004.1 0.590 1.05 1 1 11.65
 25 60.472 62.072 293.93 786.133 21.288 5070.1 0.691 0.96 1 1 43.41
 26 222.370 74.415 151.26 467.997 35.181 5047.4 0.592 1.05 1 0 43.42
 27 313.391 43.615 46.50 756.438 43.906 5727.4 0.708 0.83 1 0 55.50
 28 253.561 78.171 80.92 9.055 47.327 5219.6 0.713 0.85 1 1 41.97
 29 101.601 68.825 282.91 297.852 23.395 3829.9 0.490 1.38 1 0 24.93
 30 78.906 52.980 289.52 721.463 82.123 5294.9 0.711 0.80 1 0 89.26
 31 236.731 43.937 127.01 691.375 26.044 5181.5 0.596 1.02 1 0 20.42
 32 238.082 53.872 101.03 57.169 50.778 5497.1 0.608 0.77 1 0 48.30
 33 315.504 67.066 29.10 104.670 42.838 5402.1 0.706 0.89 1 0 52.14
 34 87.761 40.338 265.21 436.181 43.051 5985.5 0.674 0.82 1 0 33.44
 35 223.088 79.229 152.52 175.421 49.900 4746.2 0.497 1.18 1 0 35.70
 36 329.047 61.405 13.56 268.440 52.870 4755.3 0.487 1.13 1 0 48.64
 37 122.436 73.168 210.51 315.571 58.831 5379.8 0.727 0.82 1 0 42.24
 38 2.560 31.953 15.12 29.946 57.211 5823.2 0.781 0.72 1 0 36.41
 39 203.885 60.668 132.48 26.256 36.286 4898.8 0.440 1.10 1 0 10.08
 40 43.988 66.592 313.54 390.775 48.498 4720.4 0.660 1.02 1 0 27.13
 41 15.946 45.976 333.92 593.377 47.898 5385.0 0.713 0.96 1 0 23.44
 42 331.283 88.082 40.99 73.918 44.863 4832.6 0.492 1.01 1 0 10.00
 43 32.395 25.020 339.01 678.667 55.436 5616.8 0.635 0.90 1 0 21.98
 44 102.785 75.857 279.81 294.842 67.784 4462.8 0.696 0.94 1 0 33.03
 45 207.075 41.458 181.56 789.744 71.519 5555.4 0.660 0.95 1 1 40.54
 46 353.606 82.200 13.81 610.817 66.002 3733.6 0.348 1.39 1 0 30.23
 47 72.785 85.522 258.68 459.365 95.507 4145.9 0.672 1.11 1 0 78.78
 48 196.323 81.887 179.17 133.524 76.108 3284.7 0.247 1.57 1 0 46.33
 49 139.695 61.306 237.45 524.106 98.804 4675.0 0.708 0.94 1 0 63.68
 50 143.885 27.467 186.20 685.926 85.253 4151.8 0.573 1.23 1 0 36.64
 51 335.401 53.331 43.16 91.559 79.573 5306.1 0.601 0.97 1 0 42.19
 52 98.154 66.751 272.26 407.173 78.504 5142.1 0.712 0.90 1 0 35.45
 53 252.186 81.994 113.53 589.587 77.454 3666.0 0.461 1.30 1 0 33.19
 54 280.305 77.842 75.13 174.163 84.739 4113.0 0.574 1.19 1 0 45.11
 55 82.760 87.839 282.54 628.930 116.189 4116.7 0.596 1.22 1 0 84.22
 56 74.766 79.460 253.88 277.396 108.038 4434.3 0.744 0.91 1 0 60.61
 57 119.722 57.825 268.84 366.389 124.303 6083.3 0.764 0.77 1 0 73.11
 58 223.582 79.010 110.90 25.178 119.881 4056.1 0.497 1.06 1 1 65.71
 59 157.919 55.533 220.29 58.283 105.308 5848.9 0.754 0.73 1 0 43.83
 60 304.673 73.613 66.06 76.011 93.956 4344.7 0.575 0.99 1 0 19.61
 61 131.100 47.961 247.86 778.930 106.072 5795.1 0.759 0.83 1 0 37.13
 62 329.537 48.883 51.38 758.349 99.579 5333.8 0.617 0.99 1 0 26.20
 63 66.777 56.175 296.86 557.375 100.235 3988.5 0.448 1.36 1 0 20.24
 64 58.165 42.106 288.26 579.023 109.869 5731.8 0.666 0.89 1 0 36.66
 65 314.213 51.892 40.89 315.837 101.702 5148.9 0.641 0.99 1 0 19.31
 66 172.236 38.722 163.75 149.210 101.289 3649.5 0.409 1.51 1 0 20.48
 67 342.423 55.622 38.47 110.722 133.660 5303.9 0.636 0.92 1 0 57.48
 68 79.914 60.249 272.94 328.476 106.978 5688.4 0.700 0.76 1 0 16.22
 69 108.917 81.578 256.26 222.048 114.696 4147.0 0.613 1.18 1 0 45.95
 70 328.717 69.497 20.26 126.992 106.887 3861.5 0.325 1.39 1 0 20.48
 71 77.443 47.332 265.18 410.687 144.722 6109.4 0.709 0.68 1 0 75.40
 72 359.405 74.673 346.26 160.584 129.707 3947.0 0.408 1.22 1 0 54.77
 73 264.128 81.348 67.31 496.528 113.986 3128.2 0.301 1.72 1 0 17.69
 74 0.453 35.856 348.81 659.414 137.510 5620.4 0.723 0.91 1 0 42.28
 75 114.162 74.683 248.31 799.383 112.792 4166.3 0.633 1.06 1 1 10.02
 76 97.358 30.159 271.37 692.578 135.429 6652.5 0.721 0.85 1 0 42.89
 77 89.169 82.564 247.16 251.993 117.874 3541.5 0.535 1.28 1 0 14.59
 78 76.355 65.794 270.38 317.416 141.892 5281.3 0.715 0.91 1 0 55.12
 79 302.932 62.708 66.39 795.255 119.898 3801.0 0.331 1.25 1 1 9.27
 80 108.394 73.021 267.92 576.746 141.177 5103.5 0.700 0.89 1 0 36.78
 81 166.597 43.468 192.30 81.053 143.428 6061.3 0.814 0.75 1 0 41.04
 82 332.264 17.553 29.03 191.034 124.454 5047.9 0.676 1.04 1 0 9.83
 83 168.350 24.533 169.19 209.087 133.870 4809.2 0.693 1.01 1 0 26.14
 84 137.486 81.273 250.78 764.167 128.747 3825.9 0.586 1.21 1 0 16.84
 85 80.377 50.700 250.24 549.492 163.775 6227.2 0.673 0.69 1 0 62.02
 86 221.527 71.950 156.23 787.838 154.460 5548.6 0.660 0.91 1 1 48.94
 87 308.065 38.050 26.06 243.747 148.066 5995.6 0.736 0.77 1 0 38.81
 88 258.662 62.859 106.63 511.737 139.934 4678.1 0.529 1.10 1 0 23.58
 89 309.414 72.067 74.40 197.646 170.135 4523.9 0.533 1.00 1 0 69.72
 90 89.482 41.674 287.80 749.426 147.103 5764.5 0.620 0.87 1 0 32.65
 91 106.750 42.853 245.35 460.364 165.189 6026.0 0.699 0.74 1 0 56.89
 92 233.181 15.875 146.57 494.462 150.450 4161.5 0.493 1.34 1 0 24.73
 93 310.772 32.668 33.05 279.179 158.607 6510.5 0.753 0.75 1 0 38.94
 94 129.963 50.916 205.76 65.666 185.608 5675.4 0.710 0.96 1 0 53.49
 95 274.927 58.097 80.88 26.823 187.767 5570.3 0.637 0.76 1 1 64.71
 96 73.313 75.727 291.87 505.553 193.952 4024.3 0.596 1.18 1 0 68.51
 97 287.565 70.466 70.42 131.364 195.776 4742.0 0.627 1.01 1 0 80.97
 98 119.843 19.721 223.97 709.052 182.411 5342.8 0.745 0.85 1 0 55.30
 99 11.930 66.656 326.64 665.411 173.596 5282.9 0.676 0.88 1 0 47.18
 100 256.490 41.983 82.62 752.456 183.593 5821.4 0.750 0.76 1 0 52.29
 101 327.230 37.177 18.47 601.622 177.436 5408.7 0.673 0.93 1 0 33.68
 102 90.352 83.630 244.87 259.369 174.672 3734.7 0.521 1.19 1 0 14.90
 103 101.148 60.390 253.52 308.375 179.647 5611.8 0.685 0.91 1 0 27.08
 104 42.221 77.279 346.70 342.781 193.902 4150.2 0.652 1.04 1 0 57.49
 105 65.733 79.347 293.12 633.577 181.140 3417.3 0.477 1.49 1 0 26.46
 106 196.246 63.134 161.28 247.641 175.011 5399.2 0.511 1.02 1 0 18.17
 107 346.950 48.185 1.32 577.510 184.461 4479.9 0.608 1.02 1 0 21.21
 108 353.603 44.356 4.41 283.299 197.370 5008.8 0.702 0.93 1 0 46.61
 109 52.547 48.365 283.85 429.088 186.490 5014.3 0.595 1.09 1 0 16.73
 110 171.260 40.911 167.15 6.104 218.589 5673.2 0.756 0.70 1 1 29.81
 111 276.553 36.362 109.01 253.092 190.233 4331.4 0.515 1.30 1 0 15.52
 112 194.394 85.156 159.03 413.628 235.012 4518.1 0.519 1.20 1 0 95.36
 113 311.755 37.219 62.84 779.184 200.490 5617.6 0.687 0.81 1 0 24.74
 114 311.237 63.932 57.47 235.816 217.907 4488.5 0.473 1.06 1 0 53.78
 115 60.613 85.568 321.40 441.207 194.918 3950.0 0.611 1.27 1 0 17.29
 116 14.587 32.860 355.67 599.343 204.828 5143.9 0.695 0.96 1 0 42.70
 117 317.519 37.398 63.35 795.418 219.423 4985.2 0.685 0.95 1 1 33.04
 118 194.820 25.063 191.29 665.781 222.411 4967.4 0.671 1.10 1 0 59.09
 119 102.238 53.231 249.97 456.297 198.118 5653.4 0.641 0.84 1 0 15.06
 120 24.862 68.528 338.47 556.115 209.456 4131.3 0.634 1.10 1 0 26.65
 121 62.492 76.734 324.67 634.593 204.451 4291.0 0.574 1.18 1 0 12.65
 122 315.670 67.154 14.90 200.616 221.704 4224.0 0.452 1.25 1 0 39.18
 123 62.608 17.065 317.48 465.644 220.021 5769.1 0.719 0.92 1 0 31.95
 124 37.086 15.729 317.78 627.731 250.355 6202.1 0.783 0.74 1 0 64.08
 125 60.093 47.447 302.74 273.355 240.080 5084.6 0.700 0.84 1 0 52.29
 126 160.430 72.288 183.76 711.602 231.886 4205.3 0.640 1.00 1 0 43.36
 127 165.251 53.677 196.65 168.224 237.385 5594.1 0.656 0.91 1 0 40.93
 128 152.057 23.609 183.95 753.002 243.068 4342.5 0.626 1.22 1 0 71.68
 129 35.570 59.072 334.79 309.550 238.561 5532.5 0.801 0.82 1 0 46.07
 130 159.285 27.564 190.84 94.291 230.496 4615.6 0.572 1.25 1 0 42.05
 131 87.435 85.390 264.90 581.968 223.395 4885.1 0.788 0.92 1 0 16.37
 132 156.205 66.351 202.72 547.360 252.898 6127.8 0.728 0.97 1 0 79.86
 133 117.656 12.189 230.03 357.438 258.585 4680.3 0.588 1.03 1 0 70.61
 134 287.297 84.426 83.67 58.025 250.228 4217.9 0.631 1.21 1 0 60.92
 135 110.965 38.522 221.84 596.883 230.658 5578.0 0.614 0.85 1 0 14.22
 136 300.175 47.740 56.45 484.591 267.430 5082.5 0.641 0.88 1 0 67.05
 137 284.654 11.764 71.52 501.302 234.401 4010.7 0.578 1.29 1 0 14.40
 138 351.142 70.692 27.66 15.561 260.984 4756.0 0.614 1.00 1 1 41.09
 139 277.360 51.365 60.77 183.353 249.866 4314.5 0.515 1.14 1 0 25.85
 140 159.038 65.015 180.12 134.883 261.867 4528.3 0.663 1.03 1 0 46.88
 141 55.688 21.068 309.30 689.220 252.141 5817.1 0.674 0.92 1 0 27.60
 142 62.057 4.692 268.94 108.070 250.663 4031.3 0.511 1.31 1 0 21.25
 143 46.108 55.312 292.60 218.346 286.255 5316.7 0.749 0.79 1 0 77.44
 144 114.459 13.302 251.28 593.253 272.980 4442.4 0.611 1.05 1 0 45.99
 145 24.172 65.634 335.97 317.960 270.881 5253.4 0.757 0.83 1 0 36.12
 146 6.108 27.522 344.47 791.190 257.186 5861.8 0.780 0.77 1 0 14.06
 147 293.989 52.333 43.18 799.930 258.941 5546.7 0.723 0.95 1 1 9.78
 148 349.449 59.584 5.03 275.896 322.487 4600.4 0.626 0.98 1 0 93.45
 149 158.146 56.403 208.64 656.015 264.591 5751.4 0.701 1.09 1 0 16.09
 150 150.830 37.574 192.12 780.826 272.199 6013.0 0.784 0.86 1 0 24.62
 151 231.467 83.313 125.07 97.553 267.666 3469.5 0.432 1.45 1 0 17.94
 152 93.921 63.735 258.44 113.032 278.095 5067.9 0.719 0.92 1 0 27.19
 153 91.992 71.582 240.08 685.710 298.142 4487.4 0.700 1.02 1 0 64.91
 154 243.019 75.020 124.43 166.168 281.487 4293.5 0.574 1.09 1 0 36.80
 155 225.604 23.261 118.44 716.570 281.142 4209.4 0.487 1.39 1 0 29.84
 156 69.023 16.408 266.92 794.649 269.627 5366.9 0.719 0.89 1 0 8.51
 157 10.316 51.727 6.91 798.461 276.473 4823.7 0.698 1.05 1 1 12.84
 158 134.994 78.285 213.98 53.102 314.553 4616.8 0.688 1.01 1 0 70.67
 159 71.280 28.431 266.42 449.958 292.812 6440.0 0.725 0.77 1 0 31.82
 160 206.150 43.468 166.96 100.043 305.029 5868.9 0.610 0.85 1 0 50.21
 161 355.874 35.933 338.48 755.976 285.409 6122.1 0.819 0.79 1 0 29.44
 162 52.706 29.106 314.42 646.419 306.567 6180.7 0.740 0.86 1 0 41.60
 163 334.571 62.112 34.63 11.347 293.271 4885.2 0.502 0.98 1 1 23.44
 164 148.969 45.367 224.48 787.152 304.013 5953.6 0.791 0.83 1 1 39.77
 165 163.537 74.410 221.92 412.647 300.894 4666.1 0.573 1.05 1 0 44.63
 166 84.190 17.702 283.44 333.916 310.801 6064.1 0.759 0.81 1 0 55.50
 167 65.535 36.900 302.19 521.001 299.780 5468.9 0.693 0.93 1 0 30.28
 168 104.592 42.047 281.59 25.294 302.257 3988.2 0.379 1.21 1 0 19.86
 169 246.514 73.624 128.49 603.948 312.608 5356.6 0.726 0.88 1 0 44.99
 170 185.732 48.547 179.27 744.672 316.896 5225.8 0.635 0.99 1 0 52.61
 171 142.978 81.948 189.04 568.811 305.524 3950.6 0.663 1.05 1 0 31.25
 172 82.198 49.206 255.73 144.357 324.180 6263.8 0.719 0.60 1 0 53.16
 173 136.959 73.471 214.68 720.540 307.692 4648.7 0.768 0.98 1 0 19.49
 174 123.587 36.661 257.14 187.501 343.664 7092.2 0.781 0.71 1 0 75.65
 175 173.445 22.407 216.38 8.104 315.847 3839.7 0.500 1.24 1 1 25.42
 176 257.746 75.523 81.27 546.510 320.205 5050.1 0.674 1.03 1 0 36.83
 177 109.578 65.215 258.48 374.000 353.657 5603.6 0.745 0.88 1 0 85.99
 178 311.475 55.667 34.77 488.072 330.136 5559.9 0.707 0.93 1 0 59.72
 179 41.841 71.075 319.08 458.969 312.291 4440.1 0.734 1.25 1 0 15.14
 180 62.358 64.724 326.43 438.817 351.242 5424.3 0.750 0.92 1 0 66.50
 181 35.732 49.684 341.84 524.360 330.095 5758.4 0.772 0.82 1 0 27.95
 182 276.720 22.801 84.38 619.903 338.830 5356.5 0.744 0.91 1 0 40.21
 183 91.355 41.163 263.94 582.143 330.911 5000.6 0.609 1.04 1 0 14.50
 184 44.795 30.446 320.63 566.586 329.772 5104.9 0.652 1.16 1 0 18.35
 185 266.035 25.101 106.31 673.807 336.649 5287.2 0.671 1.10 1 0 26.12
 186 171.927 38.066 177.44 106.935 365.060 5081.2 0.758 0.85 1 0 76.69
 187 301.145 46.760 59.56 788.667 359.146 4837.7 0.552 1.04 1 1 51.80
 188 144.097 79.038 233.63 17.458 350.716 3496.8 0.482 1.34 1 1 42.28
 189 291.214 81.249 97.91 713.283 355.406 4671.1 0.711 1.04 1 0 45.44
 190 350.589 41.083 349.93 647.673 336.378 5571.8 0.738 0.89 1 0 18.45
 191 321.486 40.699 49.13 757.926 370.419 5695.6 0.684 0.89 1 0 57.25
 192 326.846 66.712 20.74 574.936 353.289 5306.3 0.654 0.96 1 0 36.17
 193 29.828 10.353 297.37 324.327 368.234 4532.2 0.600 1.34 1 0 38.05
 194 126.158 20.857 206.05 649.529 361.157 6456.7 0.784 0.90 1 0 38.08
 195 119.017 74.362 251.03 548.815 358.031 4637.7 0.695 1.00 1 0 31.74
 196 3.515 27.407 26.26 524.852 349.315 4909.8 0.696 1.23 1 0 15.19
 197 36.234 18.615 347.99 681.731 356.648 5122.4 0.725 0.89 1 0 27.47
 198 221.711 65.128 155.61 49.423 371.480 5400.4 0.623 0.90 1 0 35.03
 199 70.210 42.640 293.11 225.986 387.060 6313.6 0.766 0.65 1 0 51.91
 200 96.764 55.351 271.76 497.473 366.147 5618.5 0.656 0.83 1 0 24.40
 201 74.170 48.996 292.34 608.025 370.003 5451.1 0.704 0.87 1 0 40.93
 202 88.244 62.739 280.61 520.483 383.122 5682.4 0.730 0.76 1 0 53.44
 203 250.966 70.328 120.23 472.678 376.447 4569.0 0.591 1.17 1 0 27.69
 204 319.059 56.448 49.71 149.740 374.325 5267.2 0.554 0.84 1 0 19.79
 205 102.552 50.026 277.98 265.902 423.657 6189.4 0.661 0.81 1 0 72.94
 206 177.357 9.926 188.93 672.173 388.285 4176.9 0.583 1.29 1 0 48.58
 207 48.310 55.471 318.38 582.463 373.812 4765.6 0.723 1.21 1 0 12.96
 208 83.266 62.974 289.82 4.787 374.746 4847.7 0.750 0.93 1 1 13.81
 209 151.123 35.955 192.63 292.678 392.439 6047.2 0.812 0.85 1 0 49.16
 210 62.074 41.478 297.16 412.926 396.052 5421.2 0.702 0.86 1 0 45.99
 211 225.501 89.575 138.07 27.571 387.639 4576.2 0.671 0.95 1 0 32.53
 212 158.929 60.334 178.11 634.374 377.180 4358.6 0.596 1.26 1 0 10.52
 213 302.597 17.931 63.36 571.665 392.736 4121.8 0.566 1.51 1 0 45.08
 214 267.796 54.142 108.31 62.930 398.077 5500.6 0.648 0.90 1 0 35.86
 215 236.552 82.087 149.62 730.814 412.364 5078.2 0.653 1.04 1 0 68.05
 216 0.570 54.780 21.50 615.782 401.094 5249.1 0.651 0.97 1 0 38.17
 217 208.272 61.342 136.77 166.194 395.644 5767.0 0.671 0.83 1 0 36.52
 218 246.369 59.433 133.11 7.456 402.339 5551.6 0.671 0.91 1 1 29.04
 219 252.053 73.086 138.70 448.808 401.141 5440.5 0.704 0.95 1 0 32.51
 220 329.740 28.424 4.11 184.346 422.191 5006.5 0.745 0.94 1 0 62.38
 221 10.782 69.867 1.64 475.889 401.270 4394.4 0.628 1.02 1 0 30.88
 222 139.172 24.273 231.53 332.762 411.166 4501.2 0.665 1.10 1 0 44.01
 223 222.301 71.103 142.19 638.141 443.560 5128.6 0.675 1.04 1 0 74.10
 224 289.181 87.121 79.46 85.058 404.743 4665.4 0.775 0.97 1 0 23.40
 225 238.473 78.750 130.56 135.721 412.437 4742.6 0.675 0.94 1 0 32.38
 226 76.382 20.343 271.86 684.759 426.277 6559.0 0.788 0.78 1 0 49.58
 227 143.969 56.982 236.16 386.654 434.247 5149.0 0.722 0.92 1 0 67.51
 228 116.969 63.766 273.98 486.484 432.577 5726.2 0.787 0.79 1 0 58.62
 229 313.836 52.408 35.41 781.471 405.979 4909.8 0.771 1.24 1 0 12.08
 230 232.186 75.019 144.28 106.899 405.287 4413.6 0.495 1.28 1 0 11.76
 231 246.230 57.144 131.80 45.519 418.689 5476.5 0.643 0.95 1 0 23.53
 232 76.331 72.692 306.29 541.823 421.391 4251.1 0.595 1.18 1 0 35.07
 233 152.522 40.482 233.59 794.439 417.853 4522.4 0.518 1.25 1 1 23.22
 234 28.764 59.964 332.66 19.209 435.539 5863.0 0.871 0.73 1 1 48.08
 235 337.868 57.354 8.17 527.500 434.429 4091.0 0.443 1.38 1 0 35.37
 236 229.401 69.648 152.06 103.883 428.372 5883.4 0.701 0.79 1 0 40.45
 237 286.438 19.563 73.48 576.314 421.809 4208.1 0.482 1.41 1 0 36.71
 238 157.264 35.113 223.73 779.090 434.716 5778.2 0.803 0.92 1 1 39.88
 239 291.517 83.244 91.92 69.264 443.952 5207.6 0.784 0.83 1 0 47.89
 240 69.392 58.983 317.16 437.843 432.943 5732.0 0.755 0.90 1 0 36.02
 241 205.686 62.473 160.75 313.370 450.180 5838.7 0.610 0.90 1 0 45.16
 242 147.153 73.320 198.76 132.300 437.160 5286.8 0.778 0.83 1 0 25.22
 243 304.731 66.655 72.22 345.762 437.016 4662.9 0.529 1.04 1 0 21.27
 244 67.201 75.096 310.28 206.266 453.781 4555.0 0.734 0.95 1 0 41.52
 245 277.409 82.011 101.57 599.992 477.741 4512.8 0.739 1.03 1 0 68.32
 246 332.627 66.516 40.77 238.206 455.926 5185.8 0.636 0.92 1 0 40.09
 247 42.123 7.796 296.67 560.697 440.891 3888.6 0.483 1.46 1 0 18.94
 248 88.851 56.999 298.09 40.360 473.094 5119.5 0.678 0.76 1 0 51.56
 249 276.821 61.470 95.09 760.674 450.298 5874.8 0.643 0.89 1 0 19.70
 250 124.247 51.017 237.57 697.300 465.467 4515.7 0.587 1.14 1 0 51.97
 251 264.053 70.808 103.27 745.188 461.100 5849.1 0.626 0.95 1 0 33.64
 252 338.672 38.494 42.12 120.716 450.873 5967.2 0.761 0.79 1 0 16.47
 253 235.682 66.436 105.51 149.250 488.277 5965.7 0.610 0.72 1 0 80.90
 254 28.317 80.585 332.19 342.949 485.202 4472.5 0.636 1.06 1 0 60.54
 255 107.454 31.749 259.49 462.198 468.129 6723.0 0.738 0.73 1 0 33.65
 256 155.622 40.361 229.36 504.518 494.632 5527.1 0.782 0.84 1 0 83.67
 257 316.480 50.680 19.98 794.309 479.384 5632.0 0.680 0.92 1 1 36.32
 258 325.791 61.069 42.24 431.832 462.059 5258.6 0.651 0.94 1 0 34.45
 259 249.582 21.285 119.94 556.688 466.750 4299.0 0.479 1.44 1 0 34.98
 260 200.033 30.986 145.44 97.098 478.809 6246.1 0.781 0.77 1 0 53.53
 261 147.868 60.746 203.60 778.698 460.283 6046.1 0.724 1.09 1 0 16.00
 262 309.042 78.815 65.29 291.566 469.267 3604.0 0.424 1.27 1 0 18.24
 263 325.373 18.524 20.67 8.627 482.180 5883.1 0.807 0.76 1 1 27.95
 264 202.907 60.781 145.98 380.990 502.233 5551.5 0.659 0.87 1 0 54.66
 265 248.739 49.681 115.82 768.448 491.265 5572.2 0.531 1.06 1 0 44.81
 266 324.633 84.645 40.15 428.677 507.041 4407.4 0.648 1.06 1 0 74.84
 267 223.316 90.102 131.09 233.227 506.000 4190.9 0.643 1.02 1 0 65.44
 268 85.401 30.480 248.38 254.371 480.409 5035.4 0.541 0.98 1 0 24.62
 269 315.207 73.166 37.38 720.767 496.277 4918.3 0.633 1.05 1 0 51.56
 270 43.972 26.865 292.44 292.611 504.386 5349.9 0.721 0.93 1 0 60.97
 271 222.763 87.023 162.10 188.354 510.429 4996.6 0.639 0.92 1 0 45.38
 272 314.333 69.724 26.40 564.809 505.699 5251.4 0.681 0.97 1 0 52.49
 273 123.984 42.103 219.97 67.854 503.210 5692.5 0.710 0.91 1 0 36.94
 274 80.699 37.730 306.75 665.688 502.177 3747.2 0.442 1.48 1 0 26.86
 275 337.837 75.790 49.24 693.445 524.643 3893.5 0.414 1.28 1 0 52.99
 276 228.422 89.386 118.88 642.527 510.128 3502.0 0.255 1.44 1 0 36.44
 277 157.690 78.783 187.53 13.321 508.081 4100.1 0.593 1.08 1 1 28.64
 278 227.603 58.975 160.12 33.005 553.937 5597.3 0.642 0.89 1 0 65.47
